HCHO_R_MCMv32
!HCHO (298K and 1 atm) photolysis quantum yields for the non radical (H2 + CO) channel   
!HCHO->H+HCO   
!Recommendation of IUPAC 2013   
!http://iupac.pole-ether.fr/htdocs/datasheets/pdf/P1_HCHO+hv.pdf 
!J11 in MCM v3.2:HCHO->H+HCO    
!
!
!XC from:   
! Meller, R. E. and Moortgat, G. K.: J. Geophys.Res., 105, 7089, 2000.
!QY is constructed by IUPAC from
! Moortgat, G. K., Seiler, W., and Warneck, P., J. Chem. Phys. 78, 1185, 1983.
!Note: XC have temperature dependence QY for J12 has pressure correction for wvl
!      greater than 330 nm.
!   
!wvl(nm) XC(cm2) H2+CO  H+HCO  Total
Points 
! With FAC, units are (cm^2/molecule)
FAC=1.0
240.0 7.800E-22 0.2700 0.7300 0.8000
250.0 2.570E-21 0.3200 0.4800 0.8000
260.0 6.050E-21 0.3100 0.4900 0.8000
269.0 9.910E-21 0.4000 0.4100 0.8100
279.0 2.451E-20 0.5600 0.3200 0.8800
280.0 2.338E-20 0.5800 0.3000 0.8800
281.0 1.562E-20 0.6000 0.2700 0.8700
282.0 9.730E-21 0.6200 0.2700 0.8900
283.0 7.220E-21 0.6400 0.2500 0.8900
284.0 4.265E-20 0.6500 0.2600 0.9100
285.0 4.050E-20 0.6700 0.3100 0.9800
286.0 2.095E-20 0.6800 0.3200 1.0000
287.0 1.153E-20 0.7000 0.3000 1.0000
288.0 3.169E-20 0.7100 0.2900 1.0000
289.0 3.225E-20 0.7100 0.2900 1.0000
290.0 1.173E-20 0.7200 0.2800 1.0000
291.0 1.836E-20 0.7300 0.2700 1.0000
292.0 7.970E-21 0.7300 0.2700 1.0000
293.0 3.128E-20 0.7400 0.2600 1.0000
294.0 7.154E-20 0.7000 0.3000 1.0000
295.0 4.054E-20 0.7900 0.2100 1.0000
296.0 2.474E-20 0.7600 0.2400 1.0000
297.0 1.367E-20 0.7400 0.2800 1.0000
298.0 4.217E-20 0.6700 0.3300 1.0000
299.0 3.175E-20 0.6500 0.3500 1.0000
300.0 9.640E-21 0.7000 0.3000 1.0000
301.0 1.625E-20 0.7000 0.3000 1.0000
302.0 8.540E-21 0.7300 0.2700 1.0000
303.0 3.021E-20 0.7140 0.2860 1.0000
304.0 7.219E-20 0.7500 0.2500 1.0000
305.0 4.752E-20 0.7100 0.2900 1.0000
306.0 4.292E-20 0.6420 0.3580 1.0000
307.0 1.781E-20 0.6800 0.3200 1.0000
308.0 1.385E-20 0.7000 0.3000 1.0000
309.0 3.252E-20 0.7100 0.2900 1.0000
310.0 1.737E-20 0.7000 0.3000 1.0000
311.0 4.620E-21 0.6800 0.3200 1.0000
312.0 1.188E-20 0.6690 0.3310 1.0000
313.0 9.060E-21 0.7300 0.2700 1.0000
314.0 5.637E-20 0.6810 0.3190 1.0000
315.0 5.565E-20 0.7800 0.2200 1.0000
316.0 2.561E-20 0.7500 0.2500 1.0000
317.0 5.777E-20 0.6530 0.3470 1.0000
318.0 3.151E-20 0.6600 0.3400 1.0000
319.0 9.780E-21 0.5790 0.4310 1.0000
320.0 1.194E-20 0.6000 0.4000 1.0000
321.0 1.598E-20 0.6500 0.3500 1.0000
322.0 7.220E-21 0.5800 0.4200 1.0000
323.0 3.280E-21 0.4750 0.5250 1.0000
324.0 8.580E-21 0.4900 0.5100 1.0000
325.0 1.578E-20 0.4600 0.5400 1.0000
326.0 6.876E-20 0.5060 0.4940 1.0000
327.0 4.370E-20 0.5000 0.5000 1.0000
328.0 1.220E-20 0.4000 0.6000 1.0000
329.0 3.120E-20 0.3290 0.6710 1.0000
330.0 3.865E-20 0.3800 0.6200 1.0000
331.0 1.412E-20 0.4600 0.4300 0.8900
332.0 3.470E-21 0.3700 0.4500 0.8200
333.0 2.140E-21 0.2400 0.4800 0.7200
334.0 1.590E-21 0.1120 0.5100 0.6220
335.0 9.700E-22 0.0700 0.5600 0.6300
336.0 1.260E-21 0.0550 0.6200 0.6750
337.0 3.830E-21 0.0350 0.6100 0.6450
338.0 1.919E-20 0.0100 0.5800 0.5900
339.0 5.381E-20 0.0110 0.5800 0.5910
340.0 3.151E-20 0.0100 0.6400 0.6500
341.0 9.780E-21 0.0080 0.6100 0.6180
342.0 5.090E-21 0.0080 0.5800 0.5880
343.0 1.922E-20 0.0080 0.5500 0.5580
344.0 1.268E-20 0.0070 0.5100 0.5170
345.0 4.370E-21 0.0070 0.5000 0.5070
346.0 1.190E-21 0.0070 0.4700 0.4770
347.0 4.400E-22 0.0070 0.4400 0.4470
348.0 7.500E-22 0.0070 0.4200 0.4270
349.0 3.800E-22 0.0060 0.3800 0.3860
350.0 3.600E-22 0.0060 0.3600 0.3660
351.0 8.900E-22 0.0050 0.3300 0.3350
352.0 7.300E-21 0.0050 0.3000 0.3050
353.0 2.275E-20 0.0050 0.2800 0.2850
354.0 1.645E-20 0.0050 0.2500 0.2550
355.0 6.960E-21 0.0050 0.1200 0.1250
356.0 1.480E-21 0.0000 0.1000 0.1000
357.0 3.500E-22 0.0000 0.0700 0.0700
358.0 1.900E-22 0.0000 0.0400 0.0400
359.0 1.100E-22 0.0000 0.0100 0.0100
360.0 9.000E-23 0.0000 0.0000 0.0000
