NO2_CBIV88
! Nitrogen Dioxide Photolysis (NO2)
! NO2 + hv -> NO + O       
! Taken from Gery et al. (1988); Absorption CS and QY from DeMore et al. (1985).
! format:  wl, abs_cs, qy
Centered
! With FAC, units are (cm^2/molecule)
FAC=1.0E-20
 280   5.54  0.984  
 281   5.58  0.984  
 282   5.36  0.984  
 283   5.36  0.984  
 284   6.25  0.984  
 285   6.99  0.984  
 286   7.29  0.984  
 287   7.37  0.984  
 288   7.66  0.984  
 289   7.89  0.984  
 290   8.18  0.984  
 291   9.90  0.984  
 292   9.37  0.984  
 293   9.75  0.984  
 294   9.48  0.984  
 295   9.68  0.984  
 296   9.30  0.983  
 297  12.17  0.982  
 298  11.72  0.982  
 299  12.57  0.981  
 300  11.72  0.980  
 301  12.28  0.980  
 302  13.87  0.978  
 303  15.92  0.978  
 304  15.96  0.977  
 305  16.56  0.976  
 306  15.81  0.975  
 307  16.33  0.974  
 308  16.18  0.973  
 309  18.38  0.973  
 310  17.56  0.972  
 311  18.78  0.971  
 312  19.61  0.970  
 313  20.35  0.970  
 314  19.42  0.969  
 315  22.50  0.968  
 316  21.31  0.967  
 317  23.29  0.966  
 318  24.81  0.966  
 319  23.14  0.965  
 320  25.37  0.964  
 321  26.53  0.963  
 322  26.49  0.962  
 323  27.68  0.962  
 324  26.75  0.961  
 325  27.86  0.960  
 326  28.79  0.959  
 327  29.09  0.958  
 328  30.77  0.958  
 329  29.98  0.957  
 330  29.87  0.956  
 331  30.50  0.955  
 332  30.05  0.954  
 333  37.27  0.954  
 334  29.80  0.953  
 335  34.52  0.952  
 336  35.08  0.951  
 337  34.63  0.950  
 338  34.78  0.950  
 339  39.88  0.949  
 340  38.80  0.948  
 341  41.66  0.947  
 342  38.32  0.946  
 343  35.45  0.946  
 344  40.21  0.945  
 345  40.70  0.944  
 346  42.93  0.943
 347  42.78  0.942  
 348  48.21  0.942  
 349  46.12  0.941
 350  40.99  0.940  
 351  45.20  0.939  
 352  44.38  0.938  
 353  39.88  0.938  
 354  50.40  0.937  
 355  51.30  0.936  
 356  46.05  0.935  
 357  55.80  0.934  
 358  50.37  0.934  
 359  45.53  0.933  
 360  45.13  0.932  
 361  53.87  0.931  
 362  50.40  0.930  
 363  51.23  0.930  
 364  48.74  0.929  
 365  57.81  0.928  
 366  53.98  0.912  
 367  51.86  0.896  
 368  53.42  0.881  
 369  51.82  0.865  
 370  54.20  0.849  
 371  52.12  0.833  
 372  59.81  0.817  
 373  55.02  0.802  
 374  52.12  0.786  
 375  53.53  0.770  
 376  62.35  0.780  
 377  56.69  0.920  
 378  51.74  0.820  
 379  54.68  0.870  
 380  59.86  0.900  
 381  56.62  0.810  
 382  56.36  0.700  
 383  53.72  0.680  
 384  59.67  0.700  
 385  59.41  0.770  
 386  53.20  0.840  
 387  56.02  0.750  
 388  59.78  0.810  
 389  60.23  0.780  
 390  60.01  0.800  
 391  58.29  0.880  
 392  60.49  0.840  
 393  54.54  0.900  
 394  55.42  0.900  
 395  58.89  0.840  
 396  61.45  0.830  
 397  56.65  0.820  
 398  64.06  0.770  
 399  56.03  0.780  
 400  67.59  0.680
 401  65.25  0.650  
 402  57.10  0.620  
 403  51.04  0.570  
 404  60.67  0.420  
 405  63.17  0.320  
 406  53.90  0.330  
 407  47.28  0.250  
 408  62.61  0.200  
 409  59.00  0.190  
 410  57.73  0.150  
 411  58.78  0.100  
 412  53.65  0.090  
 413  70.04  0.080  
 414  59.41  0.080  
 415  60.41  0.070  
 416  48.47  0.060  
 417  53.12  0.050  
 418  55.17  0.040  
 419  52.79  0.030  
 420  57.72  0.020
