NO2_RACM2
! NO2 + HV = O3P +  NO
! Absorption cross-section from NASA - 2006
! Quantum yield from NASA - 2006
! Supplied by Dr. Wendy Goliff, reformatted by Dr. Golam Sarwar to make it compatible with CMAQ
! Au and Brion J (1997), J Chem. Phys. 218, 109-126 wavelength <205                                
! IUPAC 2005 for wavelength <242 to >205
Points 
! With FAC, units are (cm^2/molecule)
FAC=1.0
155.0  1.250e-17  1.000
165.3  1.160e-17  1.000
177.1  6.800e-18  1.000
190.8  1.800e-18  1.000
205.0  3.381e-19  1.000
210.0  4.451e-19  1.000
215.0  4.887e-19  1.000
220.0  4.672e-19  1.000
225.0  3.904e-19  1.000
230.0  2.765e-19  1.000
235.0  1.653e-19  1.000
242.5  0.577E-19  1.000
245.4  0.279E-19  1.000
248.5  0.162E-19  1.000
251.6  0.998E-20  1.000
254.8  0.105E-19  1.000
258.2  0.128E-19  1.000
261.5  0.158E-19  1.000
265.0  0.205E-19  1.000
268.5  0.264E-19  1.000
272.2  0.324E-19  1.000
275.9  0.407E-19  1.000
279.8  0.521E-19  1.000
283.7  0.623E-19  1.000
287.8  0.759E-19  1.000
292.0  0.951E-19  1.000
296.3  0.115E-18  1.000
300.5  0.132E-18  1.000
303.0  0.132E-18  1.000
304.0  0.161E-18  1.000
305.0  0.161E-18  1.000
306.0  0.161E-18  1.000
307.0  0.161E-18  1.000
308.0  0.188E-18  1.000
309.0  0.188E-18  1.000
310.0  0.188E-18  1.000
311.0  0.188E-18  1.000
312.0  0.188E-18  1.000
313.0  0.216E-18  1.000
314.0  0.216E-18  1.000
316.0  0.216E-18  1.000
320.0  0.253E-18  1.000
325.0  0.287E-18  1.000
330.0  0.317E-18  1.000
335.0  0.358E-18  1.000
340.0  0.402E-18  1.000
345.0  0.418E-18  1.000
350.0  0.462E-18  1.000
355.0  0.497E-18  1.000
360.0  0.509E-18  1.000
365.0  0.549E-18  1.000
370.0  0.561E-18  1.000
375.0  0.590E-18  1.000
380.0  0.593E-18  1.000
385.0  0.601E-18  1.000
390.0  0.630E-18  1.000
395.0  0.597E-18  1.000
400.0  0.644E-18  0.940
405.0  0.582E-18  0.370
410.0  0.624E-18  0.150
415.0  0.591E-18  0.060
420.0  0.599E-18  0.020
425.0  0.570E-18  0.000
430.0  0.544E-18  0.000
435.0  0.559E-18  0.000
440.0  0.488E-18  0.000
445.0  0.488E-18  0.000
450.0  0.498E-18  0.000
455.0  0.416E-18  0.000
460.0  0.436E-18  0.000
465.0  0.414E-18  0.000
470.0  0.337E-18  0.000
475.0  0.387E-18  0.000
480.0  0.337E-18  0.000
485.0  0.254E-18  0.000
490.0  0.308E-18  0.000
495.0  0.294E-18  0.000
500.0  0.182E-18  0.000
505.0  0.243E-18  0.000
510.0  0.231E-18  0.000
515.0  0.160E-18  0.000
520.0  0.161E-18  0.000
525.0  0.179E-18  0.000
530.0  0.153E-18  0.000
535.0  0.106E-18  0.000
540.0  0.108E-18  0.000
545.0  0.127E-18  0.000
550.0  0.110E-18  0.000
555.0  0.797E-19  0.000
560.0  0.605E-19  0.000
565.0  0.870E-19  0.000
570.0  0.848E-19  0.000
575.0  0.471E-19  0.000
580.0  0.447E-19  0.000
585.0  0.469E-19  0.000
590.0  0.539E-19  0.000
595.0  0.408E-19  0.000
600.0  0.395E-19  0.000
605.0  0.185E-19  0.000
610.0  0.254E-19  0.000
615.0  0.353E-19  0.000
620.0  0.257E-19  0.000
625.0  0.196E-19  0.000
630.0  0.121E-19  0.000
635.0  0.133E-19  0.000
640.0  0.153E-19  0.000
644.8  0.192E-19  0.000
651.0  0.135E-19  0.000
660.0  0.566E-20  0.000
670.0  0.000E+00  0.000
680.0  0.000E+00  0.000
690.0  0.000E+00  0.000
700.0  0.000E+00  0.000
710.0  0.000E+00  0.000
720.0  0.000E+00  0.000
730.0  0.000E+00  0.000
