O3O3P_NASA94
! Ozone Photolysis to O3P (O3O3P)
! O3 + hv -> O2 + O(3P)
! Taken from NASA (1994);  Absorption CS is at 273 K;  QY is at 298 K;
! WMO (1988) data used for wl .ge. 362.5 nm
! format:  wl, abs_cs, qy
Beginning
! With FAC, units are (cm^2/molecule)
FAC=1.0E-20
 175.439   81.1      0.1
 176.991   79.9      0.1
 178.571   78.6      0.1
 180.180   76.3      0.1
 181.818   72.9      0.1
 183.486   68.8      0.1
 185.185   62.2      0.1
 186.916   57.6      0.1
 188.679   52.6      0.1
 190.476   47.6      0.1
 192.308   42.8      0.1
 194.175   38.3      0.1
 196.078   34.7      0.1
 198.020   32.3      0.1
 200.000   31.4      0.1
 202.020   32.6      0.1
 204.082   36.4      0.1
 206.186   43.4      0.1
 208.333   54.2      0.1
 210.526   69.9      0.1
 212.766   92.1      0.1
 215.054  119.0      0.1
 217.391  155.0      0.1
 219.780  199.0      0.1
 222.222  256.0      0.1
 224.719  323.0      0.1
 227.273  400.0      0.1
 229.885  483.0      0.1
 232.558  579.0      0.1
 235.294  686.0      0.1
 238.095  797.0      0.1
 240.964  900.0      0.1
 243.902 1000.0      0.1
 246.914 1080.0      0.1
 250.000 1130.0      0.1
 253.165 1150.0      0.1
 256.410 1120.0      0.1
 259.740 1060.0      0.1
 263.158  965.0      0.1
 266.667  834.0      0.1
 270.270  692.0      0.1
 273.973  542.0      0.1
 277.778  402.0      0.1
 281.690  277.0      0.1
 285.714  179.0      0.1
 289.855  109.0      0.0517
 294.118   62.4      0.05
 298.507   34.3      0.05
 303.030   18.5      0.07162
 307.692    9.8      0.48193
 312.500    5.01     0.93494
 317.500    2.49     0.99835
 322.500    1.2      1.0
 327.500    0.617    1.0
 332.500    0.274    1.0
 337.500    0.117    1.0
 342.500    0.0588   1.0
 347.500    0.0266   1.0
 352.500    0.0109   1.0
 357.500    0.00549  1.0
 362.500    0.0      1.0
 367.500    0.0      1.0
 372.500    0.0      1.0
 377.500    0.0      1.0
 382.500    0.0      1.0
 387.500    0.0      1.0
 392.500    0.0      1.0
 397.500    0.0      1.0
 402.500    0.0      1.0
 407.500    0.00291  1.0
 412.500    0.00314  1.0
 417.500    0.00399  1.0
 422.500    0.00654  1.0
 427.500    0.00683  1.0
 432.500    0.00866  1.0
 437.500    0.0125   1.0
 442.500    0.0149   1.0
 447.500    0.0171   1.0
 452.500    0.0212   1.0
 457.500    0.0357   1.0
 462.500    0.0368   1.0
 467.500    0.0406   1.0
 472.500    0.0489   1.0
 477.500    0.0711   1.0
 482.500    0.0843   1.0
 487.500    0.0828   1.0
 492.500    0.0909   1.0
 497.500    0.122    1.0
 502.500    0.162    1.0
 507.500    0.158    1.0
 512.500    0.16     1.0
 517.500    0.178    1.0
 522.500    0.207    1.0
 527.500    0.255    1.0
 532.500    0.274    1.0
 537.500    0.288    1.0
 542.500    0.307    1.0
 547.500    0.317    1.0
 552.500    0.336    1.0
 557.500    0.388    1.0
 562.500    0.431    1.0
 567.500    0.467    1.0
 572.500    0.475    1.0
 577.500    0.455    1.0
 582.500    0.435    1.0
 587.500    0.442    1.0
 592.500    0.461    1.0
 597.500    0.489    1.0
 602.500    0.484    1.0
 607.500    0.454    1.0
 612.500    0.424    1.0
 617.500    0.39     1.0
 622.500    0.36     1.0
 627.500    0.343    1.0
 632.500    0.317    1.0
 637.500    0.274    1.0
 642.500    0.261    1.0
 647.500    0.242    1.0
 652.500    0.22     1.0
 657.500    0.202    1.0
 662.500    0.185    1.0
 667.500    0.167    1.0
 672.500    0.154    1.0
 677.500    0.142    1.0
 682.500    0.125    1.0
 687.500    0.112    1.0
 692.500    0.102    1.0
 697.500    0.092    1.0
 702.500    0.084    1.0
 707.500    0.077    1.0
 712.500    0.069    1.0
 717.500    0.063    1.0
 722.500    0.057    1.0
 727.500    0.0525   1.0
 732.500    0.0475   1.0
 737.500    0.0447   1.0
